#FILENAME= 'h_alp-lyr_uvsum_1h_56227-56717_etc.dat' / name of file
#                                                   
#FILETYPE= 'ETC'                / type of data found in data file
#TELESCOP= 'HST'                / telescope used to acquire data
#INSTRUME= 'STIS'               / instrument used to acquire data
#EQUINOX =               2000.0 / equinox of celestial coord. system
#                                                   
#             / TARGET INFORMATION                  
#                                                   
#CATNAME = 'ALP-LYR'            / ASTRAL object name
#RA_TARG =           279.235762 / right ascension of target (deg) (J2000)
#DEC_TARG=            38.784779 / declination of target (deg) (J2000)
#                                                   
#WAVEMIN =                1150. / minimum wavelength (Angstroms)
#WAVEMAX =                3046. / maximum wavelength (Angstroms)
#                                                   
###################################################################
#                                                                 #
#   !!!!WARNING!!!!  This is a heavily processed spectrum         #
#   specifically for use with an Exposure Time Calculator.        #
# --------------------------------------------------------------  #
#   ** IT IS NOT SUITABLE FOR SCIENTIFIC ANALYSIS **              #
# --------------------------------------------------------------  #
#   See:                                                          #
#                                                                 #
# http://casa.colorado.edu/~ayres/StarCAT/ETC_spex_summary.txt  #
#                                                                 #
#   for cautions and limitations concerning the ETC spectra.      #
#                                                                 #
###################################################################
#                                                          
# Column 1:  WAVELENGTH    (Angstroms)              (F8.3) 
# Column 2:  FLUX          (erg/cm**2/s/Angstrom)  (E11.3)
#                                        
#NPTS    =                 9477 / Number of wavelength-flux entries
#                                                          
1150.400  1.533E-10
1150.600  2.215E-10
1150.800  1.932E-10
1151.000  2.721E-10
1151.200  2.902E-10
1151.400  4.002E-10
1151.600  2.939E-10
1151.800  2.534E-10
1152.000  2.130E-10
1152.200  3.143E-11
1152.400  1.863E-10
1152.600  3.434E-10
1152.800  3.263E-10
1153.000  2.578E-10
1153.200  2.107E-10
1153.400  1.824E-10
1153.600  2.900E-10
1153.800  3.083E-10
1154.000  1.987E-10
1154.200  2.036E-10
1154.400  3.277E-10
1154.600  3.645E-10
1154.800  2.745E-10
1155.000  2.306E-10
1155.200  2.872E-10
1155.400  2.271E-10
1155.600  2.269E-10
1155.800  1.806E-11
1156.000  7.091E-11
1156.200  1.754E-11
1156.400  1.730E-11
1156.600  9.170E-11
1156.800  1.225E-10
1157.000  9.405E-11
1157.200  6.887E-11
1157.400  5.719E-11
1157.600  5.730E-11
1157.800  1.615E-11
1158.000  1.602E-11
1158.200  1.591E-11
1158.400  1.578E-11
1158.600  6.917E-11
1158.800  5.187E-11
1159.000  1.541E-11
1159.200  1.349E-10
1159.400  1.501E-10
1159.600  1.904E-10
1159.800  1.674E-10
1160.000  2.063E-10
1160.200  1.760E-10
1160.400  8.650E-11
1160.600  1.356E-10
1160.800  1.085E-10
1161.000  2.072E-10
1161.200  1.315E-10
1161.400  8.929E-11
1161.600  1.502E-10
1161.800  1.749E-10
1162.000  1.902E-10
1162.200  2.216E-10
1162.400  2.148E-10
1162.600  1.710E-10
1162.800  1.986E-10
1163.000  2.090E-10
1163.200  1.716E-10
1163.400  1.879E-10
1163.600  2.016E-10
1163.800  1.691E-10
1164.000  1.216E-10
1164.200  1.042E-10
1164.400  1.471E-10
1164.600  1.401E-10
1164.800  1.324E-10
1165.000  1.417E-10
1165.200  1.230E-10
1165.400  1.358E-10
1165.600  9.735E-11
1165.800  9.331E-11
1166.000  8.753E-11
1166.200  6.896E-11
1166.400  7.033E-11
1166.600  5.321E-11
1166.800  4.484E-11
1167.000  3.726E-11
1167.200  3.873E-11
1167.400  4.406E-11
1167.600  1.119E-10
1167.800  1.382E-10
1168.000  1.269E-10
1168.200  1.145E-10
1168.400  5.514E-11
1168.600  1.237E-10
1168.800  1.528E-10
1169.000  1.284E-10
1169.200  9.889E-11
1169.400  9.810E-11
1169.600  8.128E-11
1169.800  4.729E-11
1170.000  4.168E-11
1170.200  6.945E-12
1170.400  2.234E-11
1170.600  6.799E-12
1170.800  2.589E-11
1171.000  4.370E-11
1171.200  5.044E-11
1171.400  4.857E-11
1171.600  4.861E-11
1171.800  7.253E-11
1172.000  5.606E-11
1172.200  4.757E-11
1172.400  4.543E-11
1172.600  2.686E-11
1172.800  3.121E-11
1173.000  5.600E-11
1173.200  6.953E-11
1173.400  1.050E-10
1173.600  1.050E-10
1173.800  9.729E-11
1174.000  7.715E-11
1174.200  8.345E-11
1174.400  7.998E-11
1174.600  7.698E-11
1174.800  5.920E-11
1175.000  5.955E-11
1175.200  3.992E-11
1175.400  4.143E-11
1175.600  2.959E-11
1175.800  3.193E-11
1176.000  2.680E-11
1176.200  2.958E-11
1176.400  3.194E-11
1176.600  5.351E-11
1176.800  6.894E-11
1177.000  6.504E-11
1177.200  6.399E-11
1177.400  5.882E-11
1177.600  5.366E-11
1177.800  4.614E-11
1178.000  3.117E-11
1178.200  4.675E-11
1178.400  4.503E-11
1178.600  4.691E-11
1178.800  4.987E-11
1179.000  6.175E-11
1179.200  4.814E-11
1179.400  5.573E-11
1179.600  5.085E-11
1179.800  4.992E-11
1180.000  5.346E-11
1180.200  5.093E-11
1180.400  5.323E-11
1180.600  5.241E-11
1180.800  4.274E-11
1181.000  4.324E-11
1181.200  4.369E-11
1181.400  4.411E-11
1181.600  3.312E-11
1181.800  3.614E-11
1182.000  4.507E-11
1182.200  3.978E-11
1182.400  4.064E-11
1182.600  3.797E-11
1182.800  3.910E-11
1183.000  3.755E-11
1183.200  4.112E-11
1183.400  3.416E-11
1183.600  3.421E-11
1183.800  3.394E-11
1184.000  3.244E-11
1184.200  3.218E-11
1184.400  3.512E-11
1184.600  2.972E-11
1184.800  3.504E-11
1185.000  2.889E-11
1185.200  2.808E-11
1185.400  2.819E-11
1185.600  2.819E-11
1185.800  2.556E-11
1186.000  2.801E-11
1186.200  2.804E-11
1186.400  2.596E-11
1186.600  2.340E-11
1186.800  3.009E-11
1187.000  2.597E-11
1187.200  2.554E-11
1187.400  2.490E-11
1187.600  2.196E-11
1187.800  2.569E-11
1188.000  2.460E-11
1188.200  2.441E-11
1188.400  2.256E-11
1188.600  2.244E-11
1188.800  1.811E-11
1189.000  1.606E-11
1189.200  1.872E-11
1189.400  1.813E-11
1189.600  1.654E-11
1189.800  2.199E-11
1190.000  1.975E-11
1190.200  1.772E-11
1190.400  1.629E-11
1190.600  1.625E-11
1190.800  1.893E-11
1191.000  1.565E-11
1191.200  1.826E-11
1191.400  1.915E-11
1191.600  1.788E-11
1191.800  1.722E-11
1192.000  2.239E-11
1192.200  1.971E-11
1192.400  1.679E-11
1192.600  1.629E-11
1192.800  1.866E-11
1193.000  1.480E-11
1193.200  1.127E-11
1193.400  1.440E-11
1193.600  1.639E-11
1193.800  1.902E-11
1194.000  1.423E-11
1194.200  1.356E-11
1194.400  1.343E-11
1194.600  1.335E-11
1194.800  2.065E-11
1195.000  1.884E-11
1195.200  1.592E-11
1195.400  1.882E-11
1195.600  1.686E-11
1195.800  1.484E-11
1196.000  1.431E-11
1196.200  1.841E-11
1196.400  1.604E-11
1196.600  1.389E-11
1196.800  1.646E-11
1197.000  1.853E-11
1197.200  1.796E-11
1197.400  1.570E-11
1197.600  1.716E-11
1197.800  1.569E-11
1198.000  1.693E-11
1198.200  1.701E-11
1198.400  1.921E-11
1198.600  1.529E-11
1198.800  1.676E-11
1199.000  1.596E-11
1199.200  1.596E-11
1199.400  1.334E-11
1199.600  1.321E-11
1199.800  1.626E-11
1200.000  1.221E-11
1200.200  8.333E-12
1200.400  1.270E-11
1200.600  1.281E-11
1200.800  1.820E-11
1201.000  1.621E-11
1201.200  1.425E-11
1201.400  1.545E-11
1201.600  1.607E-11
1201.800  1.501E-11
1202.000  1.348E-11
1202.200  1.220E-11
1202.400  1.454E-11
1202.600  1.610E-11
1202.800  1.183E-11
1203.000  1.149E-11
1203.200  1.205E-11
1203.400  1.095E-11
1203.600  1.132E-11
1203.800  1.302E-11
1204.000  1.394E-11
1204.200  1.647E-11
1204.400  1.333E-11
1204.600  1.305E-11
1204.800  9.392E-12
1205.000  1.423E-11
1205.200  9.983E-12
1205.400  1.011E-11
1205.600  7.475E-12
1205.800  1.067E-11
1206.000  1.148E-11
1206.200  9.842E-12
1206.400  7.923E-12
1206.600  9.323E-12
1206.800  8.190E-12
1207.000  9.556E-12
1207.200  1.051E-11
1207.400  7.241E-12
1207.600  7.745E-12
1207.800  6.480E-12
1208.000  8.988E-12
1208.200  9.391E-12
1208.400  1.196E-11
1208.600  9.790E-12
1208.800  1.240E-11
1209.000  9.701E-12
1209.200  9.723E-12
1209.400  9.550E-12
1209.600  8.716E-12
1209.800  1.000E-11
1210.000  7.177E-12
1210.200  6.482E-12
1210.400  6.904E-12
1210.600  5.930E-12
1210.800  7.837E-12
1211.000  7.215E-12
1211.200  6.305E-12
1211.400  6.321E-12
1211.600  7.869E-12
1211.800  5.876E-12
1212.000  8.200E-12
1212.200  8.880E-12
1212.400  7.691E-12
1212.600  6.926E-12
1212.800  8.281E-12
1213.000  8.216E-12
1213.200  1.846E-12
1213.400  6.453E-12
1213.600  8.382E-12
1213.800  1.828E-12
1214.000  6.136E-12
1214.200  9.007E-12
1214.400  8.053E-12
1214.600  6.670E-12
1214.800  5.203E-12
1215.000  6.259E-12
1215.200  5.513E-12
1215.400  1.783E-12
1215.600  1.778E-12
1215.800  1.772E-12
1216.000  1.767E-12
1216.200  1.762E-12
1216.400  6.628E-12
1216.600  6.116E-12
1216.800  1.748E-12
1217.000  6.944E-12
1217.200  1.740E-12
1217.400  6.602E-12
1217.600  1.733E-12
1217.800  5.848E-12
1218.000  5.318E-12
1218.200  4.997E-12
1218.400  5.988E-12
1218.600  5.450E-12
1218.800  6.563E-12
1219.000  5.227E-12
1219.200  1.714E-12
1219.400  7.076E-12
1219.600  9.467E-12
1219.800  7.602E-12
1220.000  6.808E-12
1220.200  6.889E-12
1220.400  1.707E-12
1220.600  5.799E-12
1220.800  6.632E-12
1221.000  7.865E-12
1221.200  7.263E-12
1221.400  6.976E-12
1221.600  6.276E-12
1221.800  6.749E-12
1222.000  1.094E-11
1222.200  7.871E-12
1222.400  7.667E-12
1222.600  8.422E-12
1222.800  8.678E-12
1223.000  9.246E-12
1223.200  9.481E-12
1223.400  7.067E-12
1223.600  8.372E-12
1223.800  9.741E-12
1224.000  1.109E-11
1224.200  9.684E-12
1224.400  9.258E-12
1224.600  1.126E-11
1224.800  1.033E-11
1225.000  9.590E-12
1225.200  9.833E-12
1225.400  1.006E-11
1225.600  1.095E-11
1225.800  1.013E-11
1226.000  1.072E-11
1226.200  9.868E-12
1226.400  1.137E-11
1226.600  1.021E-11
1226.800  1.140E-11
1227.000  1.071E-11
1227.200  1.362E-11
1227.400  1.257E-11
1227.600  1.138E-11
1227.800  1.219E-11
1228.000  1.348E-11
1228.200  1.364E-11
1228.400  1.489E-11
1228.600  1.406E-11
1228.800  1.453E-11
1229.000  1.397E-11
1229.200  1.428E-11
1229.400  1.596E-11
1229.600  1.774E-11
1229.800  1.681E-11
1230.000  1.505E-11
1230.200  1.613E-11
1230.400  1.624E-11
1230.600  1.805E-11
1230.800  1.543E-11
1231.000  1.646E-11
1231.200  1.778E-11
1231.400  1.890E-11
1231.600  1.780E-11
1231.800  1.577E-11
1232.000  1.875E-11
1232.200  1.794E-11
1232.400  1.858E-11
1232.600  1.580E-11
1232.800  1.824E-11
1233.000  1.714E-11
1233.200  1.844E-11
1233.400  1.771E-11
1233.600  2.058E-11
1233.800  2.113E-11
1234.000  1.737E-11
1234.200  1.989E-11
1234.400  1.943E-11
1234.600  2.624E-11
1234.800  2.351E-11
1235.000  2.557E-11
1235.200  2.513E-11
1235.400  2.760E-11
1235.600  2.989E-11
1235.800  2.686E-11
1236.000  2.486E-11
1236.200  2.536E-11
1236.400  3.221E-11
1236.600  2.640E-11
1236.800  2.670E-11
1237.000  2.823E-11
1237.200  3.871E-11
1237.400  3.188E-11
1237.600  3.149E-11
1237.800  3.154E-11
1238.000  2.997E-11
1238.200  3.355E-11
1238.400  3.237E-11
1238.600  3.323E-11
1238.800  2.863E-11
1239.000  2.962E-11
1239.200  3.520E-11
1239.400  2.837E-11
1239.600  3.095E-11
1239.800  4.088E-11
1240.000  2.840E-11
1240.200  2.809E-11
1240.400  2.796E-11
1240.600  3.241E-11
1240.800  3.869E-11
1241.000  4.719E-11
1241.200  4.608E-11
1241.400  3.524E-11
1241.600  4.073E-11
1241.800  3.831E-11
1242.000  4.314E-11
1242.200  3.921E-11
1242.400  3.828E-11
1242.600  3.653E-11
1242.800  4.068E-11
1243.000  4.086E-11
1243.200  2.314E-11
1243.400  4.837E-11
1243.600  4.964E-11
1243.800  4.414E-11
1244.000  4.810E-11
1244.200  5.022E-11
1244.400  4.880E-11
1244.600  5.000E-11
1244.800  5.373E-11
1245.000  5.009E-11
1245.200  5.659E-11
1245.400  6.412E-11
1245.600  5.684E-11
1245.800  5.143E-11
1246.000  6.779E-11
1246.200  7.626E-11
1246.400  7.686E-11
1246.600  7.613E-11
1246.800  5.706E-11
1247.000  7.065E-11
1247.200  7.979E-11
1247.400  8.607E-11
1247.600  8.644E-11
1247.800  6.607E-11
1248.000  8.424E-11
1248.200  1.163E-10
1248.400  1.083E-10
1248.600  1.077E-10
1248.800  1.051E-10
1249.000  9.579E-11
1249.200  9.733E-11
1249.400  8.916E-11
1249.600  1.379E-10
1249.800  1.466E-10
1250.000  1.559E-10
1250.200  1.171E-10
1250.400  8.083E-11
1250.600  1.738E-10
1250.800  1.687E-10
1251.000  1.382E-10
1251.200  1.048E-10
1251.400  2.199E-10
1251.600  2.549E-10
1251.800  2.637E-10
1252.000  2.255E-10
1252.200  1.414E-10
1252.400  2.404E-10
1252.600  2.896E-10
1252.800  3.000E-10
1253.000  3.038E-10
1253.200  1.990E-10
1253.400  5.316E-11
1253.600  1.461E-10
1253.800  3.214E-10
1254.000  3.677E-10
1254.200  3.516E-10
1254.400  2.030E-10
1254.600  3.075E-10
1254.800  3.716E-10
1255.000  3.856E-10
1255.200  3.460E-10
1255.400  4.460E-10
1255.600  4.995E-10
1255.800  4.987E-10
1256.000  4.234E-10
1256.200  2.227E-10
1256.400  8.499E-11
1256.600  2.198E-10
1256.800  4.283E-10
1257.000  4.929E-10
1257.200  4.888E-10
1257.400  3.758E-10
1257.600  3.378E-10
1257.800  4.728E-10
1258.000  5.730E-10
1258.200  6.131E-10
1258.400  5.315E-10
1258.600  3.899E-10
1258.800  2.071E-10
1259.000  4.197E-10
1259.200  5.751E-10
1259.400  5.659E-10
1259.600  4.728E-10
1259.800  4.042E-10
1260.000  2.017E-10
1260.200  7.692E-11
1260.400  2.185E-11
1260.600  3.312E-11
1260.800  8.771E-11
1261.000  1.021E-10
1261.200  4.152E-10
1261.400  2.606E-10
1261.600  1.221E-10
1261.800  4.248E-10
1262.000  4.657E-10
1262.200  7.433E-10
1262.400  9.534E-10
1262.600  9.798E-10
1262.800  8.261E-10
1263.000  8.486E-10
1263.200  8.722E-10
1263.400  8.656E-10
1263.600  7.656E-10
1263.800  7.059E-10
1264.000  6.006E-10
1264.200  3.570E-10
1264.400  1.529E-10
1264.600  2.386E-11
1264.800  3.047E-12
1265.000  5.543E-11
1265.200  2.405E-10
1265.400  5.050E-10
1265.600  5.301E-10
1265.800  6.485E-10
1266.000  5.257E-10
1266.200  1.406E-10
1266.400  7.658E-11
1266.600  4.632E-10
1266.800  9.202E-10
1267.000  1.082E-09
1267.200  1.082E-09
1267.400  7.452E-10
1267.600  6.695E-10
1267.800  1.310E-09
1268.000  1.267E-09
1268.200  1.597E-09
1268.400  1.642E-09
1268.600  1.609E-09
1268.800  1.661E-09
1269.000  1.199E-09
1269.200  1.451E-09
1269.400  1.790E-09
1269.600  1.695E-09
1269.800  1.622E-09
1270.000  1.702E-09
1270.200  1.781E-09
1270.400  1.848E-09
1270.600  1.838E-09
1270.800  1.805E-09
1271.000  1.900E-09
1271.200  1.654E-09
1271.400  1.899E-09
1271.600  1.926E-09
1271.800  1.879E-09
1272.000  1.775E-09
1272.200  1.976E-09
1272.400  2.093E-09
1272.600  1.519E-09
1272.800  2.182E-09
1273.000  2.068E-09
1273.200  2.026E-09
1273.400  2.081E-09
1273.600  2.184E-09
1273.800  2.090E-09
1274.000  1.954E-09
1274.200  1.639E-09
1274.400  1.459E-09
1274.600  8.609E-10
1274.800  9.998E-11
1275.000  1.048E-10
1275.200  3.887E-10
1275.400  1.408E-09
1275.600  1.034E-09
1275.800  1.547E-09
1276.000  1.601E-09
1276.200  1.167E-09
1276.400  1.455E-09
1276.600  1.727E-09
1276.800  1.492E-09
1277.000  1.254E-09
1277.200  4.779E-10
1277.400  6.437E-10
1277.600  1.713E-10
1277.800  1.250E-09
1278.000  2.145E-09
1278.200  2.375E-09
1278.400  2.357E-09
1278.600  2.268E-09
1278.800  2.331E-09
1279.000  2.192E-09
1279.200  2.208E-09
1279.400  2.273E-09
1279.600  2.369E-09
1279.800  2.115E-09
1280.000  1.713E-09
1280.200  1.075E-09
1280.400  9.756E-10
1280.600  1.867E-09
1280.800  1.583E-09
1281.000  2.634E-09
1281.200  2.732E-09
1281.400  2.644E-09
1281.600  2.802E-09
1281.800  2.671E-09
1282.000  2.611E-09
1282.200  2.699E-09
1282.400  2.645E-09
1282.600  2.684E-09
1282.800  2.785E-09
1283.000  2.640E-09
1283.200  2.936E-09
1283.400  2.739E-09
1283.600  2.887E-09
1283.800  2.846E-09
1284.000  2.736E-09
1284.200  2.817E-09
1284.400  2.888E-09
1284.600  3.107E-09
1284.800  2.996E-09
1285.000  3.083E-09
1285.200  3.151E-09
1285.400  3.007E-09
1285.600  2.987E-09
1285.800  2.836E-09
1286.000  2.929E-09
1286.200  2.950E-09
1286.400  2.505E-09
1286.600  2.786E-09
1286.800  2.829E-09
1287.000  2.673E-09
1287.200  2.005E-09
1287.400  2.664E-09
1287.600  2.216E-09
1287.800  1.782E-09
1288.000  4.235E-10
1288.200  2.924E-10
1288.400  2.398E-10
1288.600  6.020E-10
1288.800  1.593E-09
1289.000  2.286E-09
1289.200  2.769E-09
1289.400  2.684E-09
1289.600  2.915E-09
1289.800  2.835E-09
1290.000  1.321E-09
1290.200  2.936E-09
1290.400  3.125E-09
1290.600  3.225E-09
1290.800  2.555E-09
1291.000  3.418E-09
1291.200  3.202E-09
1291.400  3.018E-09
1291.600  3.178E-09
1291.800  3.533E-09
1292.000  3.554E-09
1292.200  3.513E-09
1292.400  3.111E-09
1292.600  3.542E-09
1292.800  3.482E-09
1293.000  3.520E-09
1293.200  3.402E-09
1293.400  3.685E-09
1293.600  3.017E-09
1293.800  3.621E-09
1294.000  3.877E-09
1294.200  3.877E-09
1294.400  3.650E-09
1294.600  2.367E-09
1294.800  3.324E-09
1295.000  3.654E-09
1295.200  3.747E-09
1295.400  3.651E-09
1295.600  3.134E-09
1295.800  3.414E-09
1296.000  3.217E-09
1296.200  3.256E-09
1296.400  3.682E-09
1296.600  3.643E-09
1296.800  3.830E-09
1297.000  3.859E-09
1297.200  3.888E-09
1297.400  3.969E-09
1297.600  3.964E-09
1297.800  4.054E-09
1298.000  3.906E-09
1298.200  4.024E-09
1298.400  3.977E-09
1298.600  3.635E-09
1298.800  2.222E-09
1299.000  3.802E-09
1299.200  3.810E-09
1299.400  3.138E-09
1299.600  4.014E-09
1299.800  4.043E-09
1300.000  4.116E-09
1300.200  4.200E-09
1300.400  4.168E-09
1300.600  3.882E-09
1300.800  3.677E-09
1301.000  3.273E-09
1301.200  3.538E-09
1301.400  3.643E-09
1301.600  2.540E-09
1301.800  2.161E-09
1302.000  4.238E-10
1302.200  2.097E-10
1302.400  2.067E-09
1302.600  2.633E-09
1302.800  3.033E-09
1303.000  3.029E-09
1303.200  2.773E-09
1303.400  3.500E-09
1303.600  3.873E-09
1303.800  3.849E-09
1304.000  3.489E-09
1304.200  2.911E-09
1304.400  1.105E-09
1304.600  1.105E-09
1304.800  8.283E-11
1305.000  1.207E-09
1305.200  1.453E-09
1305.400  1.106E-09
1305.600  4.273E-10
1305.800  6.020E-10
1306.000  7.863E-10
1306.200  3.026E-09
1306.400  3.229E-09
1306.600  3.128E-09
1306.800  3.035E-09
1307.000  4.167E-09
1307.200  3.775E-09
1307.400  4.295E-09
1307.600  4.230E-09
1307.800  3.600E-09
1308.000  3.764E-09
1308.200  3.591E-09
1308.400  3.261E-09
1308.600  2.996E-09
1308.800  2.581E-09
1309.000  1.531E-09
1309.200  4.552E-10
1309.400  2.508E-10
1309.600  1.188E-09
1309.800  2.408E-09
1310.000  3.349E-09
1310.200  3.285E-09
1310.400  3.318E-09
1310.600  1.020E-09
1310.800  1.686E-09
1311.000  1.331E-09
1311.200  1.328E-09
1311.400  1.321E-09
1311.600  2.730E-09
1311.800  2.132E-09
1312.000  3.639E-09
1312.200  3.772E-09
1312.400  4.344E-09
1312.600  4.315E-09
1312.800  4.645E-09
1313.000  4.638E-09
1313.200  3.552E-09
1313.400  3.156E-09
1313.600  3.701E-09
1313.800  4.686E-09
1314.000  5.014E-09
1314.200  5.025E-09
1314.400  5.062E-09
1314.600  5.065E-09
1314.800  5.160E-09
1315.000  4.867E-09
1315.200  4.766E-09
1315.400  5.079E-09
1315.600  5.172E-09
1315.800  4.698E-09
1316.000  3.687E-09
1316.200  3.878E-09
1316.400  4.516E-09
1316.600  5.194E-09
1316.800  5.248E-09
1317.000  4.774E-09
1317.200  4.668E-09
1317.400  4.980E-09
1317.600  5.300E-09
1317.800  5.101E-09
1318.000  4.766E-09
1318.200  5.064E-09
1318.400  5.394E-09
1318.600  4.595E-09
1318.800  3.979E-09
1319.000  3.656E-09
1319.200  5.215E-09
1319.400  5.384E-09
1319.600  4.645E-09
1319.800  5.258E-09
1320.000  5.175E-09
1320.200  5.104E-09
1320.400  5.000E-09
1320.600  4.557E-09
1320.800  4.947E-09
1321.000  5.116E-09
1321.200  4.826E-09
1321.400  5.500E-09
1321.600  5.466E-09
1321.800  5.161E-09
1322.000  5.191E-09
1322.200  4.986E-09
1322.400  5.249E-09
1322.600  5.185E-09
1322.800  5.115E-09
1323.000  5.143E-09
1323.200  4.652E-09
1323.400  3.705E-09
1323.600  4.115E-09
1323.800  3.196E-09
1324.000  5.017E-09
1324.200  4.390E-09
1324.400  4.266E-09
1324.600  4.889E-09
1324.800  4.717E-09
1325.000  5.092E-09
1325.200  5.200E-09
1325.400  5.157E-09
1325.600  4.503E-09
1325.800  5.231E-09
1326.000  5.346E-09
1326.200  5.340E-09
1326.400  5.368E-09
1326.600  4.811E-09
1326.800  5.297E-09
1327.000  5.020E-09
1327.200  5.152E-09
1327.400  5.293E-09
