#FILENAME= 'h_gam-dra_uvsum_1x_55783-55836_etc.dat' / name of file
#                                                   
#FILETYPE= 'ETC'                / type of data found in data file
#TELESCOP= 'HST'                / telescope used to acquire data
#INSTRUME= 'STIS'               / instrument used to acquire data
#EQUINOX =               2000.0 / equinox of celestial coord. system
#                                                   
#             / TARGET INFORMATION                  
#                                                   
#CATNAME = 'GAM-DRA'            / ASTRAL object name
#RA_TARG =           269.151486 / right ascension of target (deg) (J2000)
#DEC_TARG=            51.488818 / declination of target (deg) (J2000)
#                                                   
#WAVEMIN =                1163. / minimum wavelength (Angstroms)
#WAVEMAX =                3070. / maximum wavelength (Angstroms)
#                                                   
###################################################################
#                                                                 #
#   !!!!WARNING!!!!  This is a heavily processed spectrum         #
#   specifically for use with an Exposure Time Calculator.        #
# --------------------------------------------------------------  #
#   ** IT IS NOT SUITABLE FOR SCIENTIFIC ANALYSIS **              #
# --------------------------------------------------------------  #
#   See:                                                          #
#                                                                 #
# http://casa.colorado.edu/~ayres/StarCAT/ETC_spex_summary.txt  #
#                                                                 #
#   for cautions and limitations concerning the ETC spectra.      #
#                                                                 #
###################################################################
#                                                          
# Column 1:  WAVELENGTH    (Angstroms)              (F8.3) 
# Column 2:  FLUX          (erg/cm**2/s/Angstrom)  (E11.3)
#                                        
#NPTS    =                 9519 / Number of wavelength-flux entries
#                                                          
1163.400  3.584E-14
1163.600  3.584E-14
1163.800  3.584E-14
1164.000  3.584E-14
1164.200  3.584E-14
1164.400  3.584E-14
1164.600  3.584E-14
1164.800  3.584E-14
1165.000  3.581E-14
1165.200  3.510E-14
1165.400  3.422E-14
1165.600  3.331E-14
1165.800  3.220E-14
1166.000  3.105E-14
1166.200  2.984E-14
1166.400  2.844E-14
1166.600  2.732E-14
1166.800  2.606E-14
1167.000  2.485E-14
1167.200  2.364E-14
1167.400  2.230E-14
1167.600  2.102E-14
1167.800  1.957E-14
1168.000  1.813E-14
1168.200  1.682E-14
1168.400  1.546E-14
1168.600  1.433E-14
1168.800  1.320E-14
1169.000  1.220E-14
1169.200  1.132E-14
1169.400  1.044E-14
1169.600  9.723E-15
1169.800  9.020E-15
1170.000  8.439E-15
1170.200  8.099E-15
1170.400  7.909E-15
1170.600  7.744E-15
1170.800  7.572E-15
1171.000  7.434E-15
1171.200  7.308E-15
1171.400  7.181E-15
1171.600  7.081E-15
1171.800  6.988E-15
1172.000  6.908E-15
1172.200  6.844E-15
1172.400  6.784E-15
1172.600  6.731E-15
1172.800  3.614E-14
1173.000  3.742E-14
1173.200  6.579E-15
1173.400  6.531E-15
1173.600  6.487E-15
1173.800  6.441E-15
1174.000  6.395E-15
1174.200  6.354E-15
1174.400  6.310E-15
1174.600  6.270E-15
1174.800  6.225E-15
1175.000  6.186E-15
1175.200  6.147E-15
1175.400  6.106E-15
1175.600  6.068E-15
1175.800  6.026E-15
1176.000  5.988E-15
1176.200  5.951E-15
1176.400  5.912E-15
1176.600  5.876E-15
1176.800  5.835E-15
1177.000  5.799E-15
1177.200  5.764E-15
1177.400  5.726E-15
1177.600  5.692E-15
1177.800  5.655E-15
1178.000  5.620E-15
1178.200  1.874E-13
1178.400  2.305E-13
1178.600  5.520E-15
1178.800  5.487E-15
1179.000  5.454E-15
1179.200  5.424E-15
1179.400  5.393E-15
1179.600  5.364E-15
1179.800  5.334E-15
1180.000  5.304E-15
1180.200  5.279E-15
1180.400  5.249E-15
1180.600  5.224E-15
1180.800  3.920E-14
1181.000  2.784E-14
1181.200  5.145E-15
1181.400  5.119E-15
1181.600  5.094E-15
1181.800  1.975E-14
1182.000  5.044E-15
1182.200  5.021E-15
1182.400  3.062E-14
1182.600  2.486E-14
1182.800  4.951E-15
1183.000  4.929E-15
1183.200  4.907E-15
1183.400  4.885E-15
1183.600  4.864E-15
1183.800  4.843E-15
1184.000  4.822E-15
1184.200  4.802E-15
1184.400  4.782E-15
1184.600  4.763E-15
1184.800  4.743E-15
1185.000  4.725E-15
1185.200  4.708E-15
1185.400  4.689E-15
1185.600  4.672E-15
1185.800  4.654E-15
1186.000  4.636E-15
1186.200  1.895E-14
1186.400  4.602E-15
1186.600  4.587E-15
1186.800  4.569E-15
1187.000  4.553E-15
1187.200  4.538E-15
1187.400  1.931E-14
1187.600  1.839E-14
1187.800  1.506E-14
1188.000  4.477E-15
1188.200  4.463E-15
1188.400  4.448E-15
1188.600  4.434E-15
1188.800  4.421E-15
1189.000  4.408E-15
1189.200  4.396E-15
1189.400  4.383E-15
1189.600  4.372E-15
1189.800  4.360E-15
1190.000  4.350E-15
1190.200  1.525E-14
1190.400  1.898E-14
1190.600  1.843E-14
1190.800  1.553E-14
1191.000  4.303E-15
1191.200  4.295E-15
1191.400  4.287E-15
1191.600  1.544E-14
1191.800  4.272E-15
1192.000  4.265E-15
1192.200  4.259E-15
1192.400  4.252E-15
1192.600  1.822E-14
1192.800  4.240E-15
1193.000  4.234E-15
1193.200  4.229E-15
1193.400  4.223E-15
1193.600  1.380E-14
1193.800  4.213E-15
1194.000  4.208E-15
1194.200  4.204E-15
1194.400  4.199E-15
1194.600  1.530E-14
1194.800  4.191E-15
1195.000  4.188E-15
1195.200  4.185E-15
1195.400  4.181E-15
1195.600  4.179E-15
1195.800  1.664E-14
1196.000  4.173E-15
1196.200  4.171E-15
1196.400  4.168E-15
1196.600  1.905E-14
1196.800  1.462E-14
1197.000  4.162E-15
1197.200  4.160E-15
1197.400  4.159E-15
1197.600  4.157E-15
1197.800  1.518E-14
1198.000  1.362E-14
1198.200  1.874E-14
1198.400  1.587E-14
1198.600  1.463E-14
1198.800  1.711E-14
1199.000  4.343E-14
1199.200  4.597E-14
1199.400  4.146E-15
1199.600  4.101E-14
1199.800  2.382E-14
1200.000  2.247E-14
1200.200  3.459E-14
1200.400  3.311E-14
1200.600  4.146E-15
1200.800  1.389E-14
1201.000  4.148E-15
1201.200  4.149E-15
1201.400  1.365E-14
1201.600  1.582E-14
1201.800  1.929E-14
1202.000  1.960E-14
1202.200  4.160E-15
1202.400  1.917E-14
1202.600  1.763E-14
1202.800  1.372E-14
1203.000  4.173E-15
1203.200  1.261E-14
1203.400  2.033E-14
1203.600  1.365E-14
1203.800  4.192E-15
1204.000  4.197E-15
1204.200  1.459E-14
1204.400  4.212E-15
1204.600  4.219E-15
1204.800  4.228E-15
1205.000  4.238E-15
1205.200  2.233E-14
1205.400  4.310E-14
1205.600  3.801E-14
1205.800  2.412E-14
1206.000  2.508E-14
1206.200  2.626E-14
1206.400  8.589E-14
1206.600  9.885E-14
1206.800  3.771E-14
1207.000  4.244E-14
1207.200  1.992E-14
1207.400  1.818E-14
1207.600  2.715E-14
1207.800  1.945E-14
1208.000  1.975E-14
1208.200  2.311E-14
1208.400  4.296E-14
1208.600  1.324E-13
1208.800  1.688E-13
1209.000  5.416E-14
1209.200  9.113E-14
1209.400  1.175E-13
1209.600  5.028E-14
1209.800  5.403E-14
1210.000  4.219E-14
1210.200  3.699E-14
1210.400  3.864E-14
1210.600  3.654E-14
1210.800  5.680E-14
1211.000  1.017E-13
1211.200  1.029E-13
1211.400  6.611E-14
1211.600  8.407E-14
1211.800  1.163E-13
1212.000  1.152E-13
1212.200  1.030E-13
1212.400  1.180E-13
1212.600  1.281E-13
1212.800  1.295E-13
1213.000  1.508E-13
1213.200  2.701E-13
1213.400  4.177E-13
1213.600  6.447E-13
1213.800  1.286E-12
1214.000  2.086E-12
1214.200  3.108E-12
1214.400  4.430E-12
1214.600  5.425E-12
1214.800  5.815E-12
1215.000  5.445E-12
1215.200  7.724E-13
1215.400  5.175E-14
1215.600  2.627E-13
1215.800  7.673E-13
1216.000  4.981E-12
1216.200  6.479E-12
1216.400  6.521E-12
1216.600  6.031E-12
1216.800  4.643E-12
1217.000  3.379E-12
1217.200  2.391E-12
1217.400  1.548E-12
1217.600  9.413E-13
1217.800  4.997E-13
1218.000  3.217E-13
1218.200  2.091E-13
1218.400  2.593E-13
1218.600  2.748E-13
1218.800  1.495E-13
1219.000  9.667E-14
1219.200  9.470E-14
1219.400  9.581E-14
1219.600  9.722E-14
1219.800  1.386E-13
1220.000  2.128E-13
1220.200  1.866E-13
1220.400  6.930E-14
1220.600  5.523E-14
1220.800  9.031E-14
1221.000  5.992E-14
1221.200  7.531E-14
1221.400  1.489E-13
1221.600  9.280E-14
1221.800  3.905E-14
1222.000  4.881E-14
1222.200  6.820E-14
1222.400  5.043E-14
1222.600  3.629E-14
1222.800  3.865E-14
1223.000  2.252E-14
1223.200  2.509E-14
1223.400  2.612E-14
1223.600  3.027E-14
1223.800  4.051E-14
1224.000  2.628E-14
1224.200  2.160E-14
1224.400  2.439E-14
1224.600  1.436E-14
1224.800  3.356E-14
1225.000  3.050E-14
1225.200  2.187E-14
1225.400  2.438E-14
1225.600  2.438E-14
1225.800  1.926E-14
1226.000  1.971E-14
1226.200  1.971E-14
1226.400  2.557E-15
1226.600  1.138E-14
1226.800  1.427E-14
1227.000  2.100E-14
1227.200  2.085E-14
1227.400  1.612E-14
1227.600  1.357E-14
1227.800  1.704E-14
1228.000  1.936E-14
1228.200  1.221E-14
1228.400  1.271E-14
1228.600  1.407E-14
1228.800  1.236E-14
1229.000  1.257E-14
1229.200  1.058E-14
1229.400  1.192E-14
1229.600  1.007E-14
1229.800  9.331E-15
1230.000  2.636E-14
1230.200  1.831E-14
1230.400  1.953E-14
1230.600  9.914E-15
1230.800  1.021E-14
1231.000  1.164E-14
1231.200  1.274E-14
1231.400  9.090E-15
1231.600  1.255E-14
1231.800  9.292E-15
1232.000  8.632E-15
1232.200  9.305E-15
1232.400  1.220E-14
1232.600  1.085E-14
1232.800  7.880E-15
1233.000  1.360E-14
1233.200  1.224E-14
1233.400  1.097E-14
1233.600  8.218E-15
1233.800  1.157E-14
1234.000  1.100E-14
1234.200  1.288E-14
1234.400  1.405E-14
1234.600  9.715E-15
1234.800  1.021E-14
1235.000  1.409E-14
1235.200  1.123E-14
1235.400  1.296E-14
1235.600  8.779E-15
1235.800  7.712E-15
1236.000  7.939E-15
1236.200  8.546E-15
1236.400  9.094E-15
1236.600  1.302E-14
1236.800  1.156E-14
1237.000  1.206E-14
1237.200  1.212E-14
1237.400  1.365E-14
1237.600  1.222E-14
1237.800  1.982E-14
1238.000  8.916E-15
1238.200  1.870E-14
1238.400  2.476E-14
1238.600  4.908E-14
1238.800  5.306E-14
1239.000  2.974E-14
1239.200  1.677E-14
1239.400  1.301E-14
1239.600  1.005E-14
1239.800  1.924E-15
1240.000  1.230E-14
1240.200  1.183E-14
1240.400  1.037E-14
1240.600  6.745E-15
1240.800  8.027E-15
1241.000  1.099E-14
1241.200  1.117E-14
1241.400  8.798E-15
1241.600  9.141E-15
1241.800  1.188E-14
1242.000  1.027E-14
1242.200  1.015E-14
1242.400  2.017E-14
1242.600  3.400E-14
1242.800  3.256E-14
1243.000  1.262E-14
1243.200  1.821E-15
1243.400  1.340E-14
1243.600  8.556E-15
1243.800  1.168E-14
1244.000  1.235E-14
1244.200  6.077E-15
1244.400  1.272E-14
1244.600  9.285E-15
1244.800  1.175E-14
1245.000  1.547E-14
1245.200  1.481E-14
1245.400  6.127E-15
1245.600  1.763E-15
1245.800  1.929E-14
1246.000  1.300E-14
1246.200  1.749E-15
1246.400  1.745E-15
1246.600  1.479E-14
1246.800  2.044E-14
1247.000  1.143E-14
1247.200  8.868E-15
1247.400  5.297E-15
1247.600  1.461E-14
1247.800  2.287E-14
1248.000  1.858E-14
1248.200  1.703E-15
1248.400  1.699E-15
1248.600  1.695E-15
1248.800  1.057E-14
1249.000  1.030E-14
1249.200  2.367E-14
1249.400  2.487E-14
1249.600  1.674E-15
1249.800  1.670E-15
1250.000  1.666E-15
1250.200  1.341E-14
1250.400  1.424E-14
1250.600  1.656E-15
1250.800  1.653E-15
1251.000  2.173E-14
1251.200  1.975E-14
1251.400  5.974E-15
1251.600  1.642E-15
1251.800  1.639E-15
1252.000  1.680E-14
1252.200  1.680E-14
1252.400  5.561E-15
1252.600  1.631E-15
1252.800  7.950E-15
1253.000  1.627E-15
1253.200  1.724E-14
1253.400  2.429E-14
1253.600  1.041E-14
1253.800  9.572E-15
1254.000  1.497E-14
1254.200  7.080E-15
1254.400  1.909E-14
1254.600  1.055E-14
1254.800  5.478E-15
1255.000  8.560E-15
1255.200  1.037E-14
1255.400  1.607E-15
1255.600  1.605E-15
1255.800  1.604E-15
1256.000  8.275E-15
1256.200  1.008E-14
1256.400  2.535E-14
1256.600  1.102E-14
1256.800  1.596E-15
1257.000  1.595E-15
1257.200  8.774E-15
1257.400  1.559E-14
1257.600  3.045E-14
1257.800  3.768E-14
1258.000  6.558E-15
1258.200  5.393E-15
1258.400  5.529E-15
1258.600  1.656E-14
1258.800  1.416E-14
1259.000  5.378E-15
1259.200  9.902E-15
1259.400  1.297E-14
1259.600  1.193E-14
1259.800  1.566E-15
1260.000  1.564E-15
1260.200  1.561E-15
1260.400  1.026E-14
1260.600  9.967E-15
1260.800  1.554E-15
1261.000  6.652E-15
1261.200  7.371E-15
1261.400  8.360E-15
1261.600  1.454E-14
1261.800  6.419E-15
1262.000  5.120E-15
1262.200  1.538E-15
1262.400  1.536E-15
1262.600  5.005E-15
1262.800  8.108E-15
1263.000  1.300E-14
1263.200  1.140E-14
1263.400  5.666E-15
1263.600  8.081E-15
1263.800  4.813E-15
1264.000  9.599E-15
1264.200  9.106E-15
1264.400  1.515E-15
1264.600  9.549E-15
1264.800  1.281E-14
1265.000  1.818E-14
1265.200  1.749E-14
1265.400  3.088E-14
1265.600  3.992E-14
1265.800  1.500E-15
1266.000  2.261E-14
1266.200  3.089E-14
1266.400  4.360E-14
1266.600  1.624E-14
1266.800  1.134E-14
1267.000  5.317E-15
1267.200  5.317E-15
1267.400  1.855E-14
1267.600  1.855E-14
1267.800  1.480E-15
1268.000  7.752E-15
1268.200  6.364E-15
1268.400  1.473E-15
1268.600  1.472E-15
1268.800  4.204E-15
1269.000  7.243E-15
1269.200  7.707E-15
1269.400  1.463E-15
1269.600  1.461E-15
1269.800  1.459E-15
1270.000  1.457E-15
1270.200  5.502E-15
1270.400  1.453E-15
1270.600  1.754E-14
1270.800  1.578E-14
1271.000  1.431E-14
1271.200  1.445E-15
1271.400  1.443E-15
1271.600  5.544E-15
1271.800  1.184E-14
1272.000  9.245E-15
1272.200  9.271E-15
1272.400  1.435E-15
1272.600  1.434E-15
1272.800  4.970E-15
1273.000  1.525E-14
1273.200  1.448E-14
1273.400  1.429E-15
1273.600  1.428E-15
1273.800  1.427E-15
1274.000  6.641E-15
1274.200  1.425E-15
1274.400  3.093E-14
1274.600  1.707E-14
1274.800  3.126E-14
1275.000  2.267E-14
1275.200  6.260E-15
1275.400  1.421E-15
1275.600  1.421E-15
1275.800  1.420E-15
1276.000  1.017E-14
1276.200  1.901E-14
1276.400  5.745E-15
1276.600  1.419E-15
1276.800  4.185E-15
1277.000  8.636E-15
1277.200  7.342E-15
1277.400  7.780E-15
1277.600  4.439E-15
1277.800  5.055E-15
1278.000  5.044E-15
1278.200  4.712E-15
1278.400  1.420E-15
1278.600  5.165E-15
1278.800  7.939E-15
1279.000  1.133E-14
1279.200  1.156E-14
1279.400  1.745E-14
1279.600  5.134E-15
1279.800  6.247E-15
1280.000  7.202E-15
1280.200  8.253E-15
1280.400  8.158E-15
1280.600  8.160E-15
1280.800  6.592E-15
1281.000  5.470E-15
1281.200  5.581E-15
1281.400  1.431E-15
1281.600  1.432E-15
1281.800  1.433E-15
1282.000  1.434E-15
1282.200  1.608E-14
1282.400  1.634E-14
1282.600  1.438E-15
1282.800  1.110E-14
1283.000  2.932E-14
1283.200  1.442E-15
1283.400  6.796E-15
1283.600  1.446E-15
1283.800  1.447E-15
1284.000  8.766E-15
1284.200  5.731E-15
1284.400  1.453E-15
1284.600  1.454E-15
1284.800  1.456E-15
1285.000  4.396E-15
1285.200  1.460E-15
1285.400  1.462E-15
1285.600  5.497E-15
1285.800  1.465E-15
1286.000  1.467E-15
1286.200  1.463E-14
1286.400  1.544E-14
1286.600  1.255E-14
1286.800  1.474E-15
1287.000  6.557E-15
1287.200  6.837E-15
1287.400  1.479E-15
1287.600  6.969E-15
1287.800  9.021E-15
1288.000  1.060E-14
1288.200  2.762E-14
1288.400  2.971E-14
1288.600  1.246E-14
1288.800  3.429E-14
1289.000  9.300E-14
1289.200  1.713E-14
1289.400  1.498E-15
1289.600  8.703E-15
1289.800  2.098E-14
1290.000  2.002E-14
1290.200  6.628E-15
1290.400  1.512E-15
1290.600  1.515E-15
1290.800  6.290E-15
1291.000  1.522E-15
1291.200  1.308E-14
1291.400  4.985E-14
1291.600  4.552E-14
1291.800  7.349E-15
1292.000  7.473E-15
1292.200  5.106E-14
1292.400  5.213E-14
1292.600  1.558E-15
1292.800  1.564E-15
1293.000  1.570E-15
1293.200  1.575E-15
1293.400  7.002E-14
1293.600  6.854E-14
1293.800  2.195E-14
1294.000  1.601E-15
1294.200  1.608E-15
1294.400  1.616E-15
1294.600  1.603E-14
1294.800  4.003E-14
1295.000  1.087E-14
1295.200  1.153E-14
1295.400  8.821E-13
1295.600  1.030E-12
1295.800  9.402E-14
1296.000  7.899E-13
1296.200  7.683E-13
1296.400  2.323E-14
1296.600  1.709E-15
1296.800  6.750E-15
1297.000  1.727E-15
1297.200  5.744E-15
1297.400  1.744E-15
1297.600  1.752E-15
1297.800  1.760E-15
1298.000  1.172E-14
1298.200  9.579E-15
1298.400  1.782E-15
1298.600  2.140E-14
1298.800  2.122E-14
1299.000  2.156E-14
1299.200  8.874E-14
1299.400  1.065E-13
1299.600  1.391E-14
1299.800  7.355E-15
1300.000  8.845E-15
1300.200  6.615E-15
1300.400  1.829E-15
1300.600  1.965E-14
1300.800  7.451E-14
1301.000  3.066E-14
1301.200  1.080E-14
1301.400  1.074E-14
1301.600  9.487E-14
1301.800  6.809E-13
1302.000  7.896E-13
1302.200  2.168E-12
1302.400  1.084E-12
1302.600  4.941E-13
1302.800  8.664E-13
1303.000  5.730E-14
1303.200  7.728E-14
1303.400  5.683E-14
1303.600  1.600E-14
1303.800  1.155E-14
1304.000  1.875E-14
1304.200  2.743E-14
1304.400  4.649E-13
1304.600  9.548E-13
1304.800  2.269E-12
1305.000  2.202E-12
1305.200  9.709E-14
1305.400  3.138E-14
1305.600  7.114E-13
1305.800  1.435E-12
1306.000  2.400E-12
1306.200  1.925E-12
1306.400  2.272E-14
1306.600  8.046E-15
1306.800  7.679E-15
1307.000  3.419E-14
1307.200  3.345E-14
1307.400  9.641E-15
1307.600  1.096E-14
1307.800  7.255E-15
1308.000  8.036E-15
1308.200  1.679E-15
1308.400  6.735E-15
1308.600  9.919E-15
1308.800  1.076E-14
1309.000  2.268E-14
1309.200  4.601E-14
1309.400  5.022E-14
1309.600  1.618E-13
1309.800  2.390E-13
1310.000  2.273E-14
1310.200  1.241E-14
1310.400  1.068E-14
1310.600  9.486E-15
1310.800  7.954E-15
1311.000  7.983E-15
1311.200  3.904E-14
1311.400  3.255E-14
1311.600  5.226E-15
1311.800  1.333E-14
1312.000  1.463E-14
1312.200  1.695E-14
1312.400  8.804E-15
1312.600  6.187E-15
1312.800  1.086E-14
1313.000  6.975E-15
1313.200  1.849E-14
1313.400  3.236E-14
1313.600  5.999E-15
1313.800  6.109E-15
1314.000  5.718E-15
1314.200  1.463E-15
1314.400  2.011E-14
1314.600  2.047E-14
1314.800  1.442E-15
1315.000  1.435E-15
1315.200  1.429E-15
1315.400  1.423E-15
1315.600  1.166E-14
1315.800  2.066E-14
1316.000  1.147E-14
1316.200  7.855E-15
1316.400  3.944E-14
1316.600  3.407E-14
1316.800  1.383E-15
1317.000  1.378E-15
1317.200  1.374E-15
1317.400  5.455E-15
1317.600  5.644E-15
1317.800  5.708E-15
1318.000  5.905E-15
1318.200  1.354E-15
1318.400  1.350E-15
1318.600  7.370E-15
1318.800  5.555E-14
1319.000  2.416E-14
1319.200  1.209E-14
1319.400  1.336E-15
1319.600  1.333E-15
1319.800  1.331E-15
1320.000  5.186E-15
1320.200  5.588E-15
1320.400  4.125E-15
1320.600  1.324E-15
1320.800  1.323E-15
1321.000  5.863E-15
1321.200  4.821E-15
1321.400  1.319E-15
1321.600  1.318E-15
1321.800  3.981E-15
1322.000  6.182E-15
1322.200  5.535E-15
1322.400  4.507E-15
1322.600  4.703E-15
1322.800  1.316E-15
1323.000  5.341E-15
1323.200  7.869E-15
1323.400  3.095E-14
1323.600  1.152E-14
1323.800  1.316E-15
1324.000  1.316E-15
1324.200  1.316E-15
1324.400  4.567E-15
1324.600  5.785E-15
1324.800  5.296E-15
1325.000  1.319E-15
1325.200  5.679E-15
1325.400  4.996E-15
1325.600  5.285E-15
1325.800  4.028E-15
1326.000  1.324E-15
1326.200  1.325E-15
1326.400  2.163E-14
1326.600  2.323E-14
1326.800  1.329E-15
1327.000  1.331E-15
1327.200  1.332E-15
1327.400  7.968E-15
1327.600  6.817E-15
1327.800  6.456E-15
1328.000  1.340E-15
1328.200  1.342E-15
1328.400  1.345E-15
1328.600  7.646E-15
1328.800  1.425E-14
1329.000  1.740E-14
1329.200  1.674E-14
1329.400  1.846E-14
1329.600  1.851E-14
1329.800  8.281E-15
1330.000  1.366E-15
1330.200  6.788E-15
1330.400  4.907E-15
1330.600  4.863E-15
1330.800  8.758E-15
1331.000  9.752E-15
1331.200  1.219E-14
1331.400  1.010E-14
1331.600  6.234E-15
1331.800  1.395E-15
1332.000  7.471E-15
1332.200  7.398E-15
1332.400  4.077E-15
1332.600  1.407E-15
1332.800  8.312E-15
1333.000  7.700E-15
1333.200  1.913E-14
1333.400  3.424E-14
1333.600  4.227E-14
1333.800  3.938E-14
1334.000  7.765E-15
1334.200  2.594E-14
1334.400  3.759E-14
1334.600  9.864E-14
1334.800  3.575E-14
1335.000  1.434E-15
1335.200  9.858E-15
1335.400  2.712E-14
1335.600  7.456E-14
1335.800  1.214E-13
1336.000  3.517E-14
1336.200  6.369E-15
1336.400  1.440E-15
1336.600  8.271E-15
1336.800  8.592E-15
1337.000  4.902E-15
1337.200  4.750E-15
1337.400  8.884E-15
1337.600  5.359E-15
1337.800  1.323E-14
1338.000  3.944E-14
1338.200  4.637E-14
1338.400  7.268E-14
1338.600  5.628E-14
1338.800  2.748E-14
1339.000  2.489E-14
1339.200  3.456E-14
1339.400  4.899E-14
1339.600  4.812E-14
1339.800  2.810E-14
1340.000  1.241E-14
1340.200  1.420E-14
1340.400  7.053E-15
