#FILENAME= 'h_hr-1886_uvsum_1x_52955-56934_etc.dat' / name of file
#                                                   
#FILETYPE= 'ETC'                / type of data found in data file
#TELESCOP= 'HST'                / telescope used to acquire data
#INSTRUME= 'STIS'               / instrument used to acquire data
#EQUINOX =               2000.0 / equinox of celestial coord. system
#                                                   
#             / TARGET INFORMATION                  
#                                                   
#CATNAME = 'HR-1886'            / ASTRAL object name
#RA_TARG =            83.754192 / right ascension of target (deg) (J2000)
#DEC_TARG=            -6.009280 / declination of target (deg) (J2000)
#                                                   
#WAVEMIN =                1163. / minimum wavelength (Angstroms)
#WAVEMAX =                3046. / maximum wavelength (Angstroms)
#                                                   
###################################################################
#                                                                 #
#   !!!!WARNING!!!!  This is a heavily processed spectrum         #
#   specifically for use with an Exposure Time Calculator.        #
# --------------------------------------------------------------  #
#   ** IT IS NOT SUITABLE FOR SCIENTIFIC ANALYSIS **              #
# --------------------------------------------------------------  #
#   See:                                                          #
#                                                                 #
# http://casa.colorado.edu/~ayres/StarCAT/ETC_spex_summary.txt  #
#                                                                 #
#   for cautions and limitations concerning the ETC spectra.      #
#                                                                 #
###################################################################
#                                                          
# Column 1:  WAVELENGTH    (Angstroms)              (F8.3) 
# Column 2:  FLUX          (erg/cm**2/s/Angstrom)  (E11.3)
#                                        
#NPTS    =                 9412 / Number of wavelength-flux entries
#                                                          
1163.600  1.562E-09
1163.800  1.647E-09
1164.000  1.627E-09
1164.200  1.436E-09
1164.400  1.516E-09
1164.600  1.537E-09
1164.800  1.443E-09
1165.000  1.445E-09
1165.200  1.531E-09
1165.400  1.556E-09
1165.600  1.674E-09
1165.800  1.301E-09
1166.000  1.537E-09
1166.200  1.537E-09
1166.400  1.549E-09
1166.600  1.447E-09
1166.800  1.483E-09
1167.000  1.472E-09
1167.200  1.358E-09
1167.400  1.546E-09
1167.600  1.560E-09
1167.800  1.279E-09
1168.000  1.512E-09
1168.200  1.346E-09
1168.400  1.543E-09
1168.600  1.580E-09
1168.800  1.511E-09
1169.000  1.470E-09
1169.200  1.271E-09
1169.400  1.434E-09
1169.600  1.268E-09
1169.800  1.267E-09
1170.000  1.307E-09
1170.200  1.189E-09
1170.400  1.411E-09
1170.600  1.352E-09
1170.800  1.373E-09
1171.000  1.396E-09
1171.200  1.072E-09
1171.400  1.401E-09
1171.600  1.385E-09
1171.800  1.304E-09
1172.000  1.409E-09
1172.200  1.230E-09
1172.400  1.238E-09
1172.600  9.391E-10
1172.800  1.232E-09
1173.000  1.213E-09
1173.200  1.179E-09
1173.400  1.125E-09
1173.600  1.113E-09
1173.800  1.043E-09
1174.000  9.756E-10
1174.200  8.833E-10
1174.400  7.308E-10
1174.600  4.899E-10
1174.800  4.520E-10
1175.000  1.912E-10
1175.200  1.850E-10
1175.400  1.408E-10
1175.600  1.689E-10
1175.800  4.875E-11
1176.000  1.102E-10
1176.200  1.933E-10
1176.400  1.928E-10
1176.600  3.046E-10
1176.800  5.262E-10
1177.000  5.800E-10
1177.200  8.625E-10
1177.400  8.730E-10
1177.600  9.008E-10
1177.800  1.000E-09
1178.000  1.039E-09
1178.200  1.216E-09
1178.400  1.220E-09
1178.600  1.245E-09
1178.800  1.298E-09
1179.000  1.302E-09
1179.200  1.247E-09
1179.400  1.197E-09
1179.600  1.148E-09
1179.800  1.397E-09
1180.000  1.193E-09
1180.200  1.296E-09
1180.400  1.221E-09
1180.600  1.289E-09
1180.800  1.181E-09
1181.000  1.258E-09
1181.200  1.316E-09
1181.400  1.354E-09
1181.600  1.406E-09
1181.800  1.403E-09
1182.000  1.369E-09
1182.200  1.355E-09
1182.400  1.548E-09
1182.600  1.512E-09
1182.800  1.239E-09
1183.000  1.254E-09
1183.200  1.290E-09
1183.400  1.305E-09
1183.600  1.418E-09
1183.800  1.395E-09
1184.000  1.023E-09
1184.200  1.367E-09
1184.400  1.410E-09
1184.600  1.362E-09
1184.800  1.347E-09
1185.000  1.430E-09
1185.200  1.438E-09
1185.400  1.350E-09
1185.600  1.400E-09
1185.800  1.140E-09
1186.000  1.518E-09
1186.200  1.417E-09
1186.400  1.306E-09
1186.600  1.507E-09
1186.800  1.416E-09
1187.000  1.470E-09
1187.200  1.423E-09
1187.400  1.448E-09
1187.600  1.217E-09
1187.800  1.264E-09
1188.000  1.328E-09
1188.200  1.490E-09
1188.400  1.506E-09
1188.600  1.289E-09
1188.800  1.485E-09
1189.000  1.461E-09
1189.200  1.096E-09
1189.400  1.433E-09
1189.600  1.491E-09
1189.800  1.476E-09
1190.000  1.479E-09
1190.200  1.106E-09
1190.400  4.793E-10
1190.600  1.077E-09
1190.800  1.452E-09
1191.000  1.452E-09
1191.200  1.452E-09
1191.400  1.369E-09
1191.600  1.441E-09
1191.800  1.268E-09
1192.000  1.263E-09
1192.200  1.297E-09
1192.400  1.231E-09
1192.600  1.231E-09
1192.800  1.158E-09
1193.000  1.111E-09
1193.200  9.788E-10
1193.400  8.215E-10
1193.600  1.196E-09
1193.800  1.475E-09
1194.000  1.490E-09
1194.200  1.022E-09
1194.400  1.384E-09
1194.600  1.041E-09
1194.800  1.302E-09
1195.000  1.242E-09
1195.200  1.277E-09
1195.400  1.160E-09
1195.600  1.345E-09
1195.800  1.391E-09
1196.000  1.390E-09
1196.200  1.427E-09
1196.400  1.452E-09
1196.600  1.321E-09
1196.800  1.314E-09
1197.000  1.432E-09
1197.200  1.202E-09
1197.400  1.046E-09
1197.600  1.362E-09
1197.800  1.415E-09
1198.000  1.265E-09
1198.200  1.158E-09
1198.400  1.117E-09
1198.600  1.154E-09
1198.800  1.159E-09
1199.000  1.257E-09
1199.200  1.205E-09
1199.400  9.937E-10
1199.600  9.731E-10
1199.800  1.322E-09
1200.000  1.322E-09
1200.200  1.230E-09
1200.400  1.403E-09
1200.600  1.402E-09
1200.800  7.654E-10
1201.000  1.083E-09
1201.200  1.300E-09
1201.400  1.232E-09
1201.600  1.248E-09
1201.800  1.307E-09
1202.000  1.181E-09
1202.200  1.143E-09
1202.400  1.176E-09
1202.600  1.246E-09
1202.800  1.356E-09
1203.000  1.371E-09
1203.200  1.192E-09
1203.400  1.159E-09
1203.600  1.176E-09
1203.800  1.184E-09
1204.000  1.112E-09
1204.200  1.241E-09
1204.400  1.165E-09
1204.600  9.972E-10
1204.800  9.993E-10
1205.000  1.019E-09
1205.200  7.881E-10
1205.400  8.250E-10
1205.600  7.013E-10
1205.800  6.304E-10
1206.000  3.428E-10
1206.200  2.606E-11
1206.400  3.564E-12
1206.600  3.514E-12
1206.800  4.437E-11
1207.000  1.392E-10
1207.200  3.052E-10
1207.400  4.778E-10
1207.600  4.930E-10
1207.800  6.698E-10
1208.000  8.147E-10
1208.200  8.408E-10
1208.400  8.665E-10
1208.600  8.647E-10
1208.800  9.193E-10
1209.000  8.896E-10
1209.200  9.907E-10
1209.400  9.343E-10
1209.600  8.926E-10
1209.800  9.180E-10
1210.000  9.680E-10
1210.200  8.869E-10
1210.400  9.665E-10
1210.600  6.895E-10
1210.800  7.910E-10
1211.000  9.207E-10
1211.200  8.221E-10
1211.400  8.635E-10
1211.600  7.579E-10
1211.800  7.442E-10
1212.000  5.816E-10
1212.200  6.034E-10
1212.400  6.019E-10
1212.600  4.990E-10
1212.800  4.516E-10
1213.000  4.256E-10
1213.200  3.446E-10
1213.400  2.882E-10
1213.600  2.219E-10
1213.800  1.540E-10
1214.000  9.632E-11
1214.200  6.032E-11
1214.400  2.078E-11
1214.600  2.160E-12
1214.800  2.154E-12
1215.000  2.150E-12
1215.200  2.147E-12
1215.400  2.144E-12
1215.600  2.143E-12
1215.800  2.142E-12
1216.000  2.141E-12
1216.200  2.142E-12
1216.400  2.143E-12
1216.600  2.145E-12
1216.800  2.147E-12
1217.000  2.150E-12
1217.200  2.739E-11
1217.400  5.858E-11
1217.600  1.103E-10
1217.800  1.694E-10
1218.000  2.370E-10
1218.200  3.127E-10
1218.400  3.478E-10
1218.600  3.824E-10
1218.800  4.924E-10
1219.000  5.875E-10
1219.200  5.845E-10
1219.400  6.620E-10
1219.600  6.902E-10
1219.800  7.360E-10
1220.000  7.522E-10
1220.200  7.200E-10
1220.400  8.255E-10
1220.600  8.847E-10
1220.800  9.732E-10
1221.000  9.831E-10
1221.200  1.037E-09
1221.400  1.114E-09
1221.600  1.085E-09
1221.800  1.093E-09
1222.000  9.551E-10
1222.200  1.058E-09
1222.400  1.100E-09
1222.600  1.080E-09
1222.800  1.062E-09
1223.000  1.038E-09
1223.200  1.164E-09
1223.400  1.253E-09
1223.600  1.287E-09
1223.800  1.231E-09
1224.000  1.170E-09
1224.200  1.192E-09
1224.400  1.281E-09
1224.600  1.277E-09
1224.800  1.357E-09
1225.000  1.284E-09
1225.200  1.224E-09
1225.400  1.226E-09
1225.600  1.195E-09
1225.800  9.469E-10
1226.000  1.292E-09
1226.200  1.360E-09
1226.400  1.347E-09
1226.600  1.347E-09
1226.800  1.102E-09
1227.000  8.727E-10
1227.200  1.168E-09
1227.400  1.270E-09
1227.600  1.092E-09
1227.800  1.178E-09
1228.000  1.258E-09
1228.200  1.295E-09
1228.400  1.123E-09
1228.600  1.132E-09
1228.800  1.044E-09
1229.000  1.333E-09
1229.200  1.131E-09
1229.400  1.103E-09
1229.600  1.158E-09
1229.800  1.332E-09
1230.000  9.181E-10
1230.200  1.011E-09
1230.400  1.046E-09
1230.600  1.104E-09
1230.800  1.291E-09
1231.000  1.278E-09
1231.200  1.317E-09
1231.400  1.402E-09
1231.600  1.306E-09
1231.800  1.307E-09
1232.000  1.410E-09
1232.200  1.410E-09
1232.400  1.353E-09
1232.600  1.264E-09
1232.800  1.241E-09
1233.000  1.293E-09
1233.200  1.318E-09
1233.400  1.298E-09
1233.600  1.250E-09
1233.800  1.315E-09
1234.000  1.241E-09
1234.200  1.324E-09
1234.400  1.263E-09
1234.600  1.263E-09
1234.800  1.268E-09
1235.000  1.364E-09
1235.200  1.334E-09
1235.400  1.393E-09
1235.600  1.186E-09
1235.800  1.304E-09
1236.000  1.245E-09
1236.200  1.255E-09
1236.400  1.239E-09
1236.600  1.228E-09
1236.800  1.213E-09
1237.000  1.328E-09
1237.200  1.336E-09
1237.400  1.340E-09
1237.600  1.365E-09
1237.800  1.314E-09
1238.000  1.395E-09
1238.200  1.397E-09
1238.400  1.249E-09
1238.600  1.093E-09
1238.800  1.278E-09
1239.000  1.171E-09
1239.200  1.324E-09
1239.400  1.336E-09
1239.600  1.351E-09
1239.800  1.335E-09
1240.000  1.264E-09
1240.200  1.354E-09
1240.400  1.260E-09
1240.600  1.332E-09
1240.800  1.187E-09
1241.000  1.211E-09
1241.200  1.328E-09
1241.400  1.399E-09
1241.600  1.395E-09
1241.800  1.328E-09
1242.000  1.364E-09
1242.200  1.354E-09
1242.400  1.217E-09
1242.600  1.348E-09
1242.800  1.351E-09
1243.000  1.219E-09
1243.200  1.163E-09
1243.400  1.376E-09
1243.600  1.376E-09
1243.800  1.188E-09
1244.000  1.392E-09
1244.200  1.380E-09
1244.400  1.335E-09
1244.600  1.285E-09
1244.800  1.306E-09
1245.000  1.360E-09
1245.200  1.329E-09
1245.400  1.272E-09
1245.600  1.319E-09
1245.800  1.275E-09
1246.000  1.258E-09
1246.200  1.296E-09
1246.400  1.261E-09
1246.600  1.185E-09
1246.800  1.152E-09
1247.000  1.076E-09
1247.200  8.810E-10
1247.400  6.549E-10
1247.600  6.132E-10
1247.800  8.475E-10
1248.000  1.161E-09
1248.200  1.179E-09
1248.400  1.185E-09
1248.600  1.226E-09
1248.800  1.301E-09
1249.000  1.302E-09
1249.200  1.278E-09
1249.400  1.310E-09
1249.600  1.335E-09
1249.800  1.266E-09
1250.000  1.177E-09
1250.200  1.160E-09
1250.400  1.135E-09
1250.600  1.042E-09
1250.800  1.324E-09
1251.000  1.333E-09
1251.200  1.232E-09
1251.400  1.262E-09
1251.600  1.226E-09
1251.800  1.281E-09
1252.000  1.264E-09
1252.200  1.268E-09
1252.400  1.290E-09
1252.600  1.176E-09
1252.800  1.177E-09
1253.000  1.312E-09
1253.200  1.304E-09
1253.400  1.184E-09
1253.600  1.305E-09
1253.800  1.227E-09
1254.000  1.130E-09
1254.200  1.197E-09
1254.400  1.356E-09
1254.600  1.233E-09
1254.800  1.218E-09
1255.000  1.207E-09
1255.200  1.171E-09
1255.400  1.271E-09
1255.600  1.230E-09
1255.800  1.213E-09
1256.000  1.325E-09
1256.200  1.332E-09
1256.400  1.285E-09
1256.600  1.211E-09
1256.800  1.093E-09
1257.000  1.371E-09
1257.200  1.362E-09
1257.400  1.209E-09
1257.600  1.227E-09
1257.800  1.226E-09
1258.000  1.342E-09
1258.200  1.338E-09
1258.400  1.262E-09
1258.600  1.262E-09
1258.800  1.193E-09
1259.000  1.301E-09
1259.200  1.205E-09
1259.400  1.277E-09
1259.600  7.474E-10
1259.800  1.199E-09
1260.000  1.215E-09
1260.200  1.070E-09
1260.400  8.690E-10
1260.600  8.858E-10
1260.800  1.273E-09
1261.000  1.279E-09
1261.200  1.262E-09
1261.400  1.299E-09
1261.600  1.291E-09
1261.800  1.213E-09
1262.000  1.279E-09
1262.200  1.314E-09
1262.400  1.204E-09
1262.600  1.167E-09
1262.800  1.273E-09
1263.000  1.206E-09
1263.200  1.214E-09
1263.400  1.253E-09
1263.600  1.273E-09
1263.800  1.288E-09
1264.000  1.356E-09
1264.200  1.365E-09
1264.400  1.338E-09
1264.600  1.330E-09
1264.800  1.203E-09
1265.000  1.194E-09
1265.200  1.109E-09
1265.400  1.196E-09
1265.600  1.232E-09
1265.800  1.215E-09
1266.000  1.057E-09
1266.200  1.069E-09
1266.400  1.182E-09
1266.600  1.186E-09
1266.800  1.299E-09
1267.000  1.251E-09
1267.200  1.204E-09
1267.400  1.151E-09
1267.600  1.182E-09
1267.800  1.193E-09
1268.000  1.193E-09
1268.200  1.221E-09
1268.400  1.196E-09
1268.600  1.181E-09
1268.800  1.274E-09
1269.000  1.205E-09
1269.200  6.745E-10
1269.400  1.214E-09
1269.600  1.240E-09
1269.800  1.210E-09
1270.000  1.204E-09
1270.200  1.286E-09
1270.400  1.240E-09
1270.600  1.243E-09
1270.800  1.205E-09
1271.000  1.223E-09
1271.200  1.170E-09
1271.400  1.273E-09
1271.600  1.186E-09
1271.800  1.198E-09
1272.000  1.249E-09
1272.200  1.206E-09
1272.400  1.280E-09
1272.600  1.248E-09
1272.800  1.173E-09
1273.000  1.295E-09
1273.200  1.281E-09
1273.400  1.217E-09
1273.600  1.245E-09
1273.800  1.227E-09
1274.000  1.155E-09
1274.200  1.288E-09
1274.400  1.303E-09
1274.600  1.258E-09
1274.800  1.281E-09
1275.000  1.250E-09
1275.200  9.485E-10
1275.400  1.249E-09
1275.600  1.276E-09
1275.800  1.252E-09
1276.000  1.271E-09
1276.200  1.168E-09
1276.400  1.162E-09
1276.600  1.300E-09
1276.800  1.232E-09
1277.000  1.135E-09
1277.200  1.232E-09
1277.400  1.136E-09
1277.600  1.185E-09
1277.800  1.213E-09
1278.000  1.234E-09
1278.200  1.162E-09
1278.400  1.208E-09
1278.600  1.270E-09
1278.800  1.256E-09
1279.000  1.050E-09
1279.200  1.204E-09
1279.400  1.206E-09
1279.600  1.241E-09
1279.800  1.238E-09
1280.000  1.211E-09
1280.200  1.182E-09
1280.400  1.171E-09
1280.600  1.223E-09
1280.800  1.230E-09
1281.000  1.199E-09
1281.200  1.231E-09
1281.400  1.221E-09
1281.600  1.206E-09
1281.800  1.256E-09
1282.000  1.266E-09
1282.200  1.167E-09
1282.400  1.204E-09
1282.600  1.150E-09
1282.800  1.149E-09
1283.000  1.214E-09
1283.200  1.182E-09
1283.400  1.236E-09
1283.600  1.223E-09
1283.800  1.178E-09
1284.000  1.177E-09
1284.200  1.179E-09
1284.400  1.178E-09
1284.600  1.226E-09
1284.800  1.278E-09
1285.000  1.177E-09
1285.200  1.241E-09
1285.400  1.255E-09
1285.600  1.233E-09
1285.800  1.231E-09
1286.000  1.114E-09
1286.200  1.093E-09
1286.400  1.007E-09
1286.600  1.167E-09
1286.800  1.110E-09
1287.000  1.219E-09
1287.200  1.130E-09
1287.400  1.075E-09
1287.600  1.117E-09
1287.800  1.200E-09
1288.000  1.177E-09
1288.200  1.253E-09
1288.400  1.140E-09
1288.600  1.183E-09
1288.800  1.180E-09
1289.000  1.224E-09
1289.200  1.205E-09
1289.400  1.181E-09
1289.600  1.196E-09
1289.800  1.211E-09
1290.000  1.157E-09
1290.200  1.074E-09
1290.400  1.236E-09
1290.600  1.215E-09
1290.800  1.251E-09
1291.000  1.234E-09
1291.200  1.230E-09
1291.400  1.081E-09
1291.600  1.173E-09
1291.800  9.042E-10
1292.000  1.215E-09
1292.200  1.231E-09
1292.400  1.207E-09
1292.600  1.155E-09
1292.800  1.212E-09
1293.000  1.218E-09
1293.200  1.203E-09
1293.400  9.710E-10
1293.600  1.114E-09
1293.800  1.077E-09
1294.000  1.201E-09
1294.200  1.200E-09
1294.400  1.118E-09
1294.600  8.323E-10
1294.800  8.107E-10
1295.000  1.150E-09
1295.200  1.178E-09
1295.400  1.176E-09
1295.600  1.145E-09
1295.800  1.137E-09
1296.000  1.119E-09
1296.200  1.158E-09
1296.400  9.286E-10
1296.600  7.787E-10
1296.800  6.410E-10
1297.000  9.834E-10
1297.200  1.026E-09
1297.400  1.154E-09
1297.600  1.105E-09
1297.800  1.160E-09
1298.000  1.160E-09
1298.200  9.799E-10
1298.400  1.069E-09
1298.600  9.995E-10
1298.800  6.366E-10
1299.000  3.449E-10
1299.200  6.032E-10
1299.400  8.601E-10
1299.600  9.476E-10
1299.800  1.019E-09
1300.000  1.108E-09
1300.200  1.129E-09
1300.400  1.143E-09
1300.600  1.076E-09
1300.800  1.071E-09
1301.000  9.370E-10
1301.200  8.540E-10
1301.400  9.583E-10
1301.600  1.057E-09
1301.800  1.070E-09
1302.000  1.116E-09
1302.200  1.095E-09
1302.400  1.178E-09
1302.600  1.165E-09
1302.800  1.177E-09
1303.000  1.113E-09
1303.200  1.048E-09
1303.400  6.900E-10
1303.600  9.109E-10
1303.800  1.052E-09
1304.000  1.104E-09
1304.200  1.141E-09
1304.400  8.303E-10
1304.600  8.723E-10
1304.800  1.042E-09
1305.000  9.688E-10
1305.200  1.084E-09
1305.400  9.465E-10
1305.600  1.030E-09
1305.800  1.099E-09
1306.000  1.104E-09
1306.200  1.155E-09
1306.400  1.153E-09
1306.600  1.142E-09
1306.800  1.086E-09
1307.000  1.218E-09
1307.200  1.204E-09
1307.400  1.140E-09
1307.600  1.176E-09
1307.800  1.182E-09
1308.000  1.192E-09
1308.200  1.177E-09
1308.400  1.196E-09
1308.600  1.216E-09
1308.800  1.188E-09
1309.000  1.159E-09
1309.200  1.179E-09
1309.400  9.907E-10
1309.600  1.046E-09
1309.800  1.119E-09
1310.000  1.211E-09
1310.200  1.213E-09
1310.400  1.211E-09
1310.600  1.186E-09
1310.800  1.223E-09
1311.000  1.207E-09
1311.200  1.212E-09
1311.400  1.185E-09
1311.600  1.109E-09
1311.800  1.194E-09
1312.000  1.201E-09
1312.200  1.183E-09
1312.400  1.197E-09
1312.600  1.132E-09
1312.800  1.143E-09
1313.000  1.185E-09
1313.200  1.150E-09
1313.400  1.200E-09
1313.600  1.162E-09
1313.800  1.159E-09
1314.000  1.173E-09
1314.200  1.173E-09
1314.400  1.149E-09
1314.600  1.166E-09
1314.800  1.058E-09
1315.000  1.119E-09
1315.200  1.086E-09
1315.400  1.083E-09
1315.600  1.078E-09
1315.800  1.117E-09
1316.000  1.152E-09
1316.200  1.149E-09
1316.400  1.062E-09
1316.600  1.185E-09
1316.800  1.187E-09
1317.000  1.155E-09
1317.200  1.125E-09
1317.400  1.119E-09
1317.600  1.120E-09
1317.800  1.102E-09
1318.000  1.114E-09
1318.200  1.166E-09
1318.400  1.033E-09
1318.600  1.138E-09
1318.800  1.152E-09
1319.000  1.201E-09
1319.200  1.195E-09
1319.400  1.065E-09
1319.600  1.167E-09
1319.800  1.136E-09
1320.000  1.136E-09
1320.200  1.153E-09
1320.400  1.151E-09
1320.600  1.133E-09
1320.800  1.110E-09
1321.000  9.893E-10
1321.200  1.058E-09
1321.400  1.035E-09
1321.600  1.150E-09
1321.800  1.147E-09
1322.000  1.109E-09
1322.200  1.167E-09
1322.400  1.125E-09
1322.600  1.114E-09
1322.800  1.160E-09
1323.000  1.156E-09
1323.200  1.127E-09
1323.400  1.155E-09
1323.600  1.163E-09
1323.800  1.151E-09
1324.000  8.436E-10
1324.200  1.051E-09
1324.400  1.088E-09
1324.600  1.141E-09
1324.800  1.124E-09
1325.000  8.899E-10
1325.200  1.119E-09
1325.400  1.120E-09
1325.600  1.138E-09
1325.800  1.114E-09
1326.000  1.067E-09
1326.200  1.119E-09
1326.400  1.119E-09
1326.600  1.130E-09
1326.800  1.097E-09
1327.000  1.104E-09
1327.200  1.096E-09
1327.400  1.109E-09
1327.600  1.124E-09
1327.800  1.069E-09
1328.000  1.115E-09
1328.200  1.039E-09
1328.400  1.084E-09
1328.600  9.718E-10
1328.800  9.758E-10
1329.000  1.073E-09
1329.200  1.052E-09
1329.400  1.047E-09
1329.600  1.125E-09
1329.800  1.089E-09
1330.000  8.696E-10
1330.200  1.011E-09
1330.400  9.549E-10
1330.600  1.116E-09
1330.800  1.113E-09
1331.000  1.127E-09
1331.200  1.067E-09
1331.400  1.062E-09
1331.600  1.052E-09
1331.800  1.092E-09
1332.000  1.095E-09
1332.200  1.110E-09
1332.400  1.129E-09
1332.600  1.085E-09
1332.800  1.072E-09
1333.000  1.062E-09
1333.200  1.125E-09
1333.400  1.090E-09
1333.600  1.122E-09
1333.800  1.081E-09
1334.000  1.102E-09
1334.200  5.277E-10
1334.400  2.204E-10
1334.600  1.606E-11
1334.800  8.432E-10
1335.000  9.053E-10
1335.200  9.261E-10
1335.400  9.755E-10
1335.600  9.161E-10
1335.800  1.988E-10
1336.000  9.789E-10
1336.200  9.871E-10
1336.400  1.096E-09
1336.600  1.118E-09
1336.800  1.047E-09
1337.000  1.093E-09
1337.200  1.145E-09
1337.400  1.146E-09
1337.600  1.099E-09
1337.800  1.095E-09
1338.000  1.055E-09
1338.200  1.004E-09
1338.400  1.093E-09
1338.600  1.110E-09
1338.800  9.894E-10
1339.000  1.064E-09
1339.200  1.008E-09
1339.400  1.140E-09
1339.600  1.133E-09
1339.800  1.050E-09
1340.000  1.132E-09
1340.200  1.132E-09
1340.400  1.006E-09
1340.600  1.101E-09
